wavenumber,absorbance
3998.26399,-2e-05
3997.29962,-2e-05
3996.33525,-2e-05
3995.37089,4e-05
3994.40652,0.00019
3993.44215,0.00035
3992.47779,0.00034
3991.51342,0.00026
3990.54905,0.00029
3989.58469,0.00047
3988.62032,0.00065
3987.65595,0.00073
3986.69159,0.00074
3985.72722,0.00075
3984.76285,0.00076
3983.79849,0.00073
3982.83412,0.00073
3981.86975,0.00087
3980.90539,0.00109
3979.94102,0.00115
3978.97665,0.00101
3978.01229,0.00091
3977.04792,0.00093
3976.08355,0.00092
3975.11919,0.00082
3974.15482,0.00076
3973.19045,0.00089
3972.22609,0.00114
3971.26172,0.00139
3970.29735,0.00153
3969.33299,0.00151
3968.36862,0.00139
3967.40425,0.00137
3966.43989,0.00148
3965.47552,0.00166
3964.51115,0.00186
3963.54679,0.00192
3962.58242,0.00174
3961.61805,0.00147
3960.65369,0.00148
3959.68932,0.00174
3958.72495,0.00194
3957.76059,0.00194
3956.79622,0.0019
3955.83185,0.00197
3954.86749,0.00207
3953.90312,0.00207
3952.93875,0.00209
3951.97439,0.00222
3951.01002,0.00223
3950.04565,0.00198
3949.08129,0.00176
3948.11692,0.00178
3947.15255,0.00194
3946.18819,0.00221
3945.22382,0.00258
3944.25945,0.00281
3943.29509,0.00261
3942.33072,0.00226
3941.36635,0.0023
3940.40199,0.00271
3939.43762,0.00303
3938.47325,0.00309
3937.50889,0.00311
3936.54452,0.00316
3935.58016,0.00316
3934.61579,0.00305
3933.65142,0.00282
3932.68706,0.00252
3931.72269,0.00235
3930.75832,0.00245
3929.79396,0.00267
3928.82959,0.00288
3927.86522,0.00315
3926.90086,0.00334
3925.93649,0.00314
3924.97212,0.00268
3924.00776,0.00249
3923.04339,0.00286
3922.07902,0.00337
3921.11466,0.00347
3920.15029,0.00323
3919.18592,0.00319
3918.22156,0.00331
3917.25719,0.00312
3916.29282,0.00285
3915.32846,0.00307
3914.36409,0.00367
3913.39972,0.00408
3912.43536,0.00414
3911.47099,0.00408
3910.50662,0.00399
3909.54226,0.00399
3908.57789,0.00405
3907.61352,0.00407
3906.64916,0.00389
3905.68479,0.00339
3904.72042,0.00288
3903.75606,0.00264
3902.79169,0.00273
3901.82732,0.00295
3900.86296,0.00317
3899.89859,0.00313
3898.93422,0.00278
3897.96986,0.0029
3897.00549,0.00376
3896.04112,0.0046
3895.07676,0.00468
3894.11239,0.00443
3893.14802,0.00431
3892.18366,0.004
3891.21929,0.00339
3890.25492,0.00314
3889.29056,0.00381
3888.32619,0.00494
3887.36182,0.00523
3886.39746,0.00423
3885.43309,0.00287
3884.46872,0.00269
3883.50436,0.00362
3882.53999,0.00454
3881.57562,0.00451
3880.61126,0.00372
3879.64689,0.00322
3878.68252,0.0037
3877.71816,0.00469
3876.75379,0.00535
3875.78942,0.00526
3874.82506,0.00448
3873.86069,0.00361
3872.89633,0.00378
3871.93196,0.00462
3870.96759,0.00458
3870.00323,0.00327
3869.03886,0.00244
3868.07449,0.00327
3867.11013,0.00461
3866.14576,0.00475
3865.18139,0.0037
3864.21703,0.00312
3863.25266,0.00359
3862.28829,0.00421
3861.32393,0.00431
3860.35956,0.00448
3859.39519,0.00506
3858.43083,0.00532
3857.46646,0.00502
3856.50209,0.00522
3855.53773,0.00546
3854.57336,0.00423
3853.60899,0.0016
3852.64463,0.00041
3851.68026,0.00133
3850.71589,0.00311
3849.75153,0.00429
3848.78716,0.00496
3847.82279,0.00523
3846.85843,0.00537
3845.89406,0.0055
3844.92969,0.00534
3843.96533,0.00491
3843.00096,0.00471
3842.03659,0.00466
3841.07223,0.00433
3840.10786,0.0039
3839.14349,0.00365
3838.17913,0.00332
3837.21476,0.00313
3836.25039,0.00347
3835.28603,0.00393
3834.32166,0.00429
3833.35729,0.00471
3832.39293,0.00485
3831.42856,0.00446
3830.46419,0.00437
3829.49983,0.00499
3828.53546,0.00552
3827.57109,0.00528
3826.60673,0.00468
3825.64236,0.00451
3824.67799,0.00494
3823.71363,0.00557
3822.74926,0.00535
3821.78489,0.00389
3820.82053,0.0023
3819.85616,0.00232
3818.89179,0.00387
3817.92743,0.00535
3816.96306,0.00533
3815.99869,0.00407
3815.03433,0.0033
3814.06996,0.00388
3813.10559,0.00491
3812.14123,0.00538
3811.17686,0.00544
3810.2125,0.00557
3809.24813,0.00581
3808.28376,0.00562
3807.3194,0.00467
3806.35503,0.00376
3805.39066,0.00401
3804.4263,0.00506
3803.46193,0.00551
3802.49756,0.00459
3801.5332,0.00304
3800.56883,0.00249
3799.60446,0.00351
3798.6401,0.00492
3797.67573,0.00528
3796.71136,0.00465
3795.747,0.00426
3794.78263,0.00478
3793.81826,0.00559
3792.8539,0.00589
3791.88953,0.00575
3790.92516,0.00557
3789.9608,0.00546
3788.99643,0.00534
3788.03206,0.0053
3787.0677,0.00537
3786.10333,0.00526
3785.13896,0.00497
3784.1746,0.00486
3783.21023,0.00516
3782.24586,0.00559
3781.2815,0.00564
3780.31713,0.00512
3779.35276,0.0044
3778.3884,0.00427
3777.42403,0.00481
3776.45966,0.00541
3775.4953,0.00564
3774.53093,0.0056
3773.56656,0.00563
3772.6022,0.00584
3771.63783,0.00591
3770.67346,0.00533
3769.7091,0.00432
3768.74473,0.00403
3767.78036,0.00461
3766.816,0.00499
3765.85163,0.00456
3764.88726,0.00418
3763.9229,0.00449
3762.95853,0.00503
3761.99416,0.00523
3761.0298,0.00484
3760.06543,0.00409
3759.10106,0.00372
3758.1367,0.00408
3757.17233,0.0045
3756.20796,0.00447
3755.2436,0.00459
3754.27923,0.00494
3753.31486,0.00445
3752.3505,0.00298
3751.38613,0.00201
3750.42177,0.00216
3749.4574,0.00228
3748.49303,0.00213
3747.52867,0.00299
3746.5643,0.00454
3745.59993,0.00457
3744.63557,0.00248
3743.6712,0.00101
3742.70683,0.00173
3741.74247,0.00308
3740.7781,0.00348
3739.81373,0.00342
3738.84937,0.00354
3737.885,0.00341
3736.92063,0.00265
3735.95627,0.00149
3734.9919,0.0009
3734.02753,0.0015
3733.06317,0.00234
3732.0988,0.00232
3731.13443,0.00209
3730.17007,0.00262
3729.2057,0.00339
3728.24133,0.00347
3727.27697,0.00284
3726.3126,0.00212
3725.34823,0.00189
3724.38387,0.00216
3723.4195,0.00237
3722.45513,0.00217
3721.49077,0.00212
3720.5264,0.00254
3719.56203,0.00294
3718.59767,0.00297
3717.6333,0.00299
3716.66893,0.00322
3715.70457,0.0035
3714.7402,0.0038
3713.77583,0.00363
3712.81147,0.00251
3711.8471,0.00105
3710.88273,0.00055
3709.91837,0.00082
3708.954,0.00114
3707.98963,0.00155
3707.02527,0.00223
3706.0609,0.00273
3705.09653,0.00292
3704.13217,0.0029
3703.1678,0.00246
3702.20343,0.00167
3701.23907,0.00128
3700.2747,0.0016
3699.31033,0.00203
3698.34597,0.00213
3697.3816,0.00199
3696.41723,0.00189
3695.45287,0.00185
3694.4885,0.00203
3693.52413,0.00227
3692.55977,0.00191
3691.5954,0.00095
3690.63103,0.00033
3689.66667,0.00036
3688.7023,0.00029
3687.73794,0.00016
3686.77357,0.00088
3685.8092,0.00215
3684.84484,0.00287
3683.88047,0.00287
3682.9161,0.00304
3681.95174,0.00364
3680.98737,0.00411
3680.023,0.0039
3679.05864,0.00343
3678.09427,0.00359
3677.1299,0.00357
3676.16554,0.00236
3675.20117,0.00086
3674.2368,0.00151
3673.27244,0.00425
3672.30807,0.00665
3671.3437,0.00702
3670.37934,0.00616
3669.41497,0.00594
3668.4506,0.00692
3667.48624,0.00846
3666.52187,0.0098
3665.5575,0.01076
3664.59314,0.01153
3663.62877,0.01233
3662.6644,0.01329
3661.70004,0.01435
3660.73567,0.01532
3659.7713,0.0162
3658.80694,0.01705
3657.84257,0.01772
3656.8782,0.01811
3655.91384,0.0187
3654.94947,0.02009
3653.9851,0.02187
3653.02074,0.02333
3652.05637,0.02409
3651.092,0.0242
3650.12764,0.02407
3649.16327,0.0244
3648.1989,0.02539
3647.23454,0.02675
3646.27017,0.02851
3645.3058,0.03065
3644.34144,0.03277
3643.37707,0.03445
3642.4127,0.03567
3641.44834,0.03669
3640.48397,0.03777
3639.5196,0.03885
3638.55524,0.03976
3637.59087,0.04059
3636.6265,0.04171
3635.66214,0.04298
3634.69777,0.04383
3633.7334,0.04423
3632.76904,0.04499
3631.80467,0.04657
3630.8403,0.04781
3629.87594,0.04751
3628.91157,0.04642
3627.9472,0.04673
3626.98284,0.04879
3626.01847,0.05125
3625.05411,0.05302
3624.08974,0.05423
3623.12537,0.05532
3622.16101,0.05643
3621.19664,0.05724
3620.23227,0.05744
3619.26791,0.05729
3618.30354,0.05751
3617.33917,0.05844
3616.37481,0.05974
3615.41044,0.06086
3614.44607,0.06146
3613.48171,0.06159
3612.51734,0.06171
3611.55297,0.06256
3610.58861,0.06387
3609.62424,0.06452
3608.65987,0.0644
3607.69551,0.06453
3606.73114,0.06521
3605.76677,0.06598
3604.80241,0.06669
3603.83804,0.0674
3602.87367,0.06776
3601.90931,0.06771
3600.94494,0.06759
3599.98057,0.06764
3599.01621,0.06789
3598.05184,0.06834
3597.08747,0.06885
3596.12311,0.06917
3595.15874,0.0694
3594.19437,0.06978
3593.23001,0.07019
3592.26564,0.0706
3591.30127,0.07135
3590.33691,0.07222
3589.37254,0.07249
3588.40817,0.0719
3587.44381,0.07122
3586.47944,0.07119
3585.51507,0.07197
3584.55071,0.07307
3583.58634,0.07387
3582.62197,0.07423
3581.65761,0.07437
3580.69324,0.07455
3579.72887,0.07489
3578.76451,0.07531
3577.80014,0.07564
3576.83577,0.07581
3575.87141,0.07606
3574.90704,0.07646
3573.94267,0.07689
3572.97831,0.07732
3572.01394,0.07776
3571.04957,0.07828
3570.08521,0.07883
3569.12084,0.07913
3568.15647,0.07885
3567.19211,0.07824
3566.22774,0.07808
3565.26337,0.07876
3564.29901,0.07993
3563.33464,0.081
3562.37028,0.08179
3561.40591,0.08234
3560.44154,0.08269
3559.47718,0.0831
3558.51281,0.08377
3557.54844,0.08458
3556.58408,0.08531
3555.61971,0.08593
3554.65534,0.08636
3553.69098,0.08652
3552.72661,0.08673
3551.76224,0.08735
3550.79788,0.08827
3549.83351,0.08908
3548.86914,0.08959
3547.90478,0.08999
3546.94041,0.09051
3545.97604,0.09119
3545.01168,0.09182
3544.04731,0.09232
3543.08294,0.09287
3542.11858,0.09364
3541.15421,0.09455
3540.18984,0.09528
3539.22548,0.09578
3538.26111,0.09628
3537.29674,0.09692
3536.33238,0.09752
3535.36801,0.09794
3534.40364,0.09835
3533.43928,0.099
3532.47491,0.09985
3531.51054,0.10061
3530.54618,0.10112
3529.58181,0.10147
3528.61744,0.10179
3527.65308,0.10219
3526.68871,0.10278
3525.72434,0.10354
3524.75998,0.10428
3523.79561,0.1049
3522.83124,0.10545
3521.86688,0.10605
3520.90251,0.10676
3519.93814,0.10753
3518.97378,0.10827
3518.00941,0.10889
3517.04504,0.10943
3516.08068,0.11002
3515.11631,0.11071
3514.15194,0.11132
3513.18758,0.11173
3512.22321,0.11217
3511.25884,0.11281
3510.29448,0.11341
3509.33011,0.11372
3508.36574,0.11402
3507.40138,0.11462
3506.43701,0.11533
3505.47264,0.11582
3504.50828,0.11611
3503.54391,0.11651
3502.57955,0.11719
3501.61518,0.11797
3500.65081,0.11856
3499.68645,0.11897
3498.72208,0.11945
3497.75771,0.12001
3496.79335,0.12046
3495.82898,0.12084
3494.86461,0.12129
3493.90025,0.12182
3492.93588,0.12231
3491.97151,0.12274
3491.00715,0.12316
3490.04278,0.12356
3489.07841,0.12393
3488.11405,0.12427
3487.14968,0.12464
3486.18531,0.12506
3485.22095,0.12554
3484.25658,0.12605
3483.29221,0.12644
3482.32785,0.12667
3481.36348,0.12691
3480.39911,0.12728
3479.43475,0.12773
3478.47038,0.12817
3477.50601,0.12855
3476.54165,0.12887
3475.57728,0.12913
3474.61291,0.12931
3473.64855,0.12944
3472.68418,0.12974
3471.71981,0.13033
3470.75545,0.13095
3469.79108,0.13136
3468.82671,0.13163
3467.86235,0.13188
3466.89798,0.13213
3465.93361,0.1324
3464.96925,0.13272
3464.00488,0.13307
3463.04051,0.13336
3462.07615,0.13357
3461.11178,0.13379
3460.14741,0.13411
3459.18305,0.13448
3458.21868,0.13486
3457.25431,0.13531
3456.28995,0.13576
3455.32558,0.13599
3454.36121,0.13601
3453.39685,0.13607
3452.43248,0.13633
3451.46811,0.13668
3450.50375,0.13701
3449.53938,0.13722
3448.57501,0.13719
3447.61065,0.13707
3446.64628,0.13719
3445.68191,0.13759
3444.71755,0.13797
3443.75318,0.13811
3442.78881,0.13816
3441.82445,0.13828
3440.86008,0.13859
3439.89572,0.13902
3438.93135,0.13951
3437.96698,0.13994
3437.00262,0.14021
3436.03825,0.14034
3435.07388,0.14043
3434.10952,0.14049
3433.14515,0.14055
3432.18078,0.14071
3431.21642,0.14107
3430.25205,0.14139
3429.28768,0.14144
3428.32332,0.14132
3427.35895,0.14128
3426.39458,0.14139
3425.43022,0.14157
3424.46585,0.14178
3423.50148,0.14201
3422.53712,0.14223
3421.57275,0.14236
3420.60838,0.14235
3419.64402,0.14231
3418.67965,0.14237
3417.71528,0.14252
3416.75092,0.14269
3415.78655,0.14287
3414.82218,0.14313
3413.85782,0.1434
3412.89345,0.14358
3411.92908,0.14367
3410.96472,0.14384
3410.00035,0.14406
3409.03598,0.14416
3408.07162,0.14409
3407.10725,0.14403
3406.14288,0.1441
3405.17852,0.1442
3404.21415,0.14422
3403.24978,0.14418
3402.28542,0.14423
3401.32105,0.14449
3400.35668,0.14474
3399.39232,0.14477
3398.42795,0.14466
3397.46358,0.14462
3396.49922,0.14472
3395.53485,0.14496
3394.57048,0.14519
3393.60612,0.14532
3392.64175,0.14537
3391.67738,0.14537
3390.71302,0.14524
3389.74865,0.14503
3388.78428,0.14501
3387.81992,0.14513
3386.85555,0.14513
3385.89118,0.14505
3384.92682,0.14513
3383.96245,0.14535
3382.99808,0.14544
3382.03372,0.14539
3381.06935,0.14537
3380.10498,0.14548
3379.14062,0.14568
3378.17625,0.14585
3377.21189,0.14588
3376.24752,0.14574
3375.28315,0.14557
3374.31879,0.14561
3373.35442,0.14589
3372.39005,0.14618
3371.42569,0.14627
3370.46132,0.14615
3369.49695,0.14599
3368.53259,0.14586
3367.56822,0.14584
3366.60385,0.1459
3365.63949,0.14593
3364.67512,0.14582
3363.71075,0.14562
3362.74639,0.14555
3361.78202,0.14569
3360.81765,0.14581
3359.85329,0.14575
3358.88892,0.14561
3357.92455,0.14554
3356.96019,0.14548
3355.99582,0.1454
3355.03145,0.14531
3354.06709,0.14525
3353.10272,0.14535
3352.13835,0.14564
3351.17399,0.14591
3350.20962,0.14586
3349.24525,0.14557
3348.28089,0.14531
3347.31652,0.1452
3346.35215,0.14522
3345.38779,0.14525
3344.42342,0.1453
3343.45905,0.14536
3342.49469,0.1453
3341.53032,0.14516
3340.56595,0.14516
3339.60159,0.14536
3338.63722,0.14552
3337.67285,0.14547
3336.70849,0.14533
3335.74412,0.14522
3334.77975,0.14517
3333.81539,0.1452
3332.85102,0.14522
3331.88665,0.14511
3330.92229,0.14492
3329.95792,0.14477
3328.99355,0.14474
3328.02919,0.14489
3327.06482,0.14519
3326.10045,0.14538
3325.13609,0.14529
3324.17172,0.14501
3323.20735,0.14468
3322.24299,0.14443
3321.27862,0.14439
3320.31425,0.14448
3319.34989,0.14447
3318.38552,0.14433
3317.42115,0.14427
3316.45679,0.14447
3315.49242,0.14476
3314.52806,0.1448
3313.56369,0.14451
3312.59932,0.14419
3311.63496,0.14413
3310.67059,0.14434
3309.70622,0.1446
3308.74186,0.14477
3307.77749,0.14487
3306.81312,0.14498
3305.84876,0.14504
3304.88439,0.14492
3303.92002,0.14459
3302.95566,0.14413
3301.99129,0.14376
3301.02692,0.14363
3300.06256,0.1437
3299.09819,0.14384
3298.13382,0.14395
3297.16946,0.14408
3296.20509,0.14428
3295.24072,0.14448
3294.27636,0.14451
3293.31199,0.14436
3292.34762,0.14415
3291.38326,0.14391
3290.41889,0.14359
3289.45452,0.14331
3288.49016,0.14316
3287.52579,0.14317
3286.56142,0.14329
3285.59706,0.14344
3284.63269,0.14355
3283.66832,0.14354
3282.70396,0.14339
3281.73959,0.14312
3280.77522,0.14291
3279.81086,0.14288
3278.84649,0.14298
3277.88212,0.14312
3276.91776,0.14326
3275.95339,0.14331
3274.98902,0.14311
3274.02466,0.14272
3273.06029,0.14249
3272.09592,0.14257
3271.13156,0.14281
3270.16719,0.14294
3269.20282,0.14284
3268.23846,0.14256
3267.27409,0.1423
3266.30972,0.14224
3265.34536,0.1423
3264.38099,0.14231
3263.41662,0.14225
3262.45226,0.14209
3261.48789,0.14187
3260.52352,0.14175
3259.55916,0.14182
3258.59479,0.14189
3257.63042,0.1418
3256.66606,0.1417
3255.70169,0.14167
3254.73733,0.14157
3253.77296,0.1414
3252.80859,0.14133
3251.84423,0.1414
3250.87986,0.14146
3249.91549,0.14149
3248.95113,0.14157
3247.98676,0.14166
3247.02239,0.14154
3246.05803,0.14114
3245.09366,0.14073
3244.12929,0.14067
3243.16493,0.14086
3242.20056,0.14096
3241.23619,0.14082
3240.27183,0.14052
3239.30746,0.14031
3238.34309,0.14037
3237.37873,0.14062
3236.41436,0.14078
3235.44999,0.14075
3234.48563,0.1406
3233.52126,0.14039
3232.55689,0.14021
3231.59253,0.14011
3230.62816,0.14005
3229.66379,0.14003
3228.69943,0.14012
3227.73506,0.14022
3226.77069,0.14013
3225.80633,0.13989
3224.84196,0.13966
3223.87759,0.13941
3222.91323,0.13911
3221.94886,0.13896
3220.98449,0.13907
3220.02013,0.13918
3219.05576,0.13899
3218.09139,0.13855
3217.12703,0.1382
3216.16266,0.13815
3215.19829,0.13821
3214.23393,0.13811
3213.26956,0.13787
3212.30519,0.13773
3211.34083,0.13773
3210.37646,0.13766
3209.41209,0.13746
3208.44773,0.13734
3207.48336,0.13732
3206.51899,0.13724
3205.55463,0.1371
3204.59026,0.13708
3203.62589,0.13717
3202.66153,0.13724
3201.69716,0.13721
3200.73279,0.137
3199.76843,0.13663
3198.80406,0.13628
3197.83969,0.13611
3196.87533,0.13596
3195.91096,0.13564
3194.94659,0.13524
3193.98223,0.13496
3193.01786,0.13484
3192.0535,0.13479
3191.08913,0.13474
3190.12476,0.13469
3189.1604,0.13466
3188.19603,0.13458
3187.23166,0.13445
3186.2673,0.13441
3185.30293,0.13443
3184.33856,0.13436
3183.3742,0.13416
3182.40983,0.13391
3181.44546,0.13359
3180.4811,0.13315
3179.51673,0.13275
3178.55236,0.13255
3177.588,0.13251
3176.62363,0.13241
3175.65926,0.13223
3174.6949,0.13211
3173.73053,0.13204
3172.76616,0.13183
3171.8018,0.13151
3170.83743,0.13131
3169.87306,0.13132
3168.9087,0.13136
3167.94433,0.13126
3166.97996,0.13096
3166.0156,0.13054
3165.05123,0.1302
3164.08686,0.13003
3163.1225,0.1299
3162.15813,0.12962
3161.19376,0.12918
3160.2294,0.12878
3159.26503,0.12856
3158.30066,0.12851
3157.3363,0.12844
3156.37193,0.12829
3155.40756,0.12816
3154.4432,0.12812
3153.47883,0.12808
3152.51446,0.12795
3151.5501,0.12773
3150.58573,0.1274
3149.62136,0.12697
3148.657,0.12662
3147.69263,0.12645
3146.72826,0.12621
3145.7639,0.12583
3144.79953,0.12557
3143.83516,0.12554
3142.8708,0.12542
3141.90643,0.12516
3140.94206,0.12497
3139.9777,0.12489
3139.01333,0.12481
3138.04896,0.12465
3137.0846,0.12437
3136.12023,0.12391
3135.15586,0.12342
3134.1915,0.12314
3133.22713,0.12307
3132.26276,0.12296
3131.2984,0.12267
3130.33403,0.12234
3129.36967,0.12218
3128.4053,0.12212
3127.44093,0.12191
3126.47657,0.12145
3125.5122,0.12102
3124.54783,0.12086
3123.58347,0.12084
3122.6191,0.12064
3121.65473,0.12028
3120.69037,0.11996
3119.726,0.11968
3118.76163,0.11938
3117.79727,0.11912
3116.8329,0.11896
3115.86853,0.11881
3114.90417,0.11859
3113.9398,0.11827
3112.97543,0.11789
3112.01107,0.11755
3111.0467,0.11739
3110.08233,0.11732
3109.11797,0.11715
3108.1536,0.11686
3107.18923,0.1166
3106.22487,0.11642
3105.2605,0.11615
3104.29613,0.11576
3103.33177,0.11544
3102.3674,0.11528
3101.40303,0.11505
3100.43867,0.11459
3099.4743,0.1141
3098.50993,0.11386
3097.54557,0.11386
3096.5812,0.11387
3095.61683,0.11371
3094.65247,0.11339
3093.6881,0.11299
3092.72373,0.1126
3091.75937,0.11233
3090.795,0.11214
3089.83063,0.11184
3088.86627,0.11143
3087.9019,0.11112
3086.93753,0.11097
3085.97317,0.11089
3085.0088,0.11079
3084.04443,0.11057
3083.08007,0.11012
3082.1157,0.10959
3081.15133,0.10921
3080.18697,0.10901
3079.2226,0.10893
3078.25823,0.10888
3077.29387,0.10868
3076.3295,0.10833
3075.36513,0.10805
3074.40077,0.1079
3073.4364,0.10766
3072.47203,0.10725
3071.50767,0.10684
3070.5433,0.1066
3069.57893,0.10645
3068.61457,0.10626
3067.6502,0.10598
3066.68584,0.1057
3065.72147,0.10542
3064.7571,0.10508
3063.79274,0.10473
3062.82837,0.10445
3061.864,0.10416
3060.89964,0.10382
3059.93527,0.10356
3058.9709,0.10342
3058.00654,0.10327
3057.04217,0.10302
3056.0778,0.10263
3055.11344,0.10213
3054.14907,0.10168
3053.1847,0.10148
3052.22034,0.10143
3051.25597,0.10122
3050.2916,0.10077
3049.32724,0.10036
3048.36287,0.1001
3047.3985,0.09985
3046.43414,0.09954
3045.46977,0.09928
3044.5054,0.09906
3043.54104,0.09879
3042.57667,0.0984
3041.6123,0.09795
3040.64794,0.09756
3039.68357,0.09723
3038.7192,0.09687
3037.75484,0.0965
3036.79047,0.09626
3035.8261,0.09609
3034.86174,0.09578
3033.89737,0.09534
3032.933,0.09489
3031.96864,0.09448
3031.00427,0.09407
3030.0399,0.09374
3029.07554,0.0935
3028.11117,0.09318
3027.1468,0.09273
3026.18244,0.09231
3025.21807,0.09204
3024.2537,0.09182
3023.28934,0.09152
3022.32497,0.0911
3021.3606,0.09061
3020.39624,0.09017
3019.43187,0.08984
3018.4675,0.08954
3017.50314,0.08913
3016.53877,0.08858
3015.5744,0.08801
3014.61004,0.08752
3013.64567,0.08716
3012.6813,0.0869
3011.71694,0.08665
3010.75257,0.08634
3009.7882,0.08589
3008.82384,0.0853
3007.85947,0.08463
3006.89511,0.08406
3005.93074,0.08365
3004.96637,0.08329
3004.00201,0.08288
3003.03764,0.08247
3002.07327,0.0821
3001.10891,0.08172
3000.14454,0.08126
2999.18017,0.08075
2998.21581,0.08026
2997.25144,0.0798
2996.28707,0.07941
2995.32271,0.07913
2994.35834,0.07893
2993.39397,0.07872
2992.42961,0.07828
2991.46524,0.0774
2990.50087,0.07628
2989.53651,0.07553
2988.57214,0.07543
2987.60777,0.07554
2986.64341,0.07548
2985.67904,0.07533
2984.71467,0.07532
2983.75031,0.07535
2982.78594,0.07515
2981.82157,0.0747
2980.85721,0.07426
2979.89284,0.07397
2978.92847,0.07377
2977.96411,0.07355
2976.99974,0.07334
2976.03537,0.07313
2975.07101,0.07289
2974.10664,0.07261
2973.14227,0.07231
2972.17791,0.07198
2971.21354,0.07172
2970.24917,0.07163
2969.28481,0.07167
2968.32044,0.07171
2967.35607,0.07167
2966.39171,0.07152
2965.42734,0.07134
2964.46297,0.07129
2963.49861,0.07139
2962.53424,0.07148
2961.56987,0.0714
2960.60551,0.07119
2959.64114,0.071
2958.67677,0.07089
2957.71241,0.07083
2956.74804,0.07082
2955.78367,0.07086
2954.81931,0.07082
2953.85494,0.07064
2952.89057,0.0704
2951.92621,0.07024
2950.96184,0.07016
2949.99747,0.07012
2949.03311,0.07008
2948.06874,0.07
2947.10437,0.06982
2946.14001,0.06957
2945.17564,0.06939
2944.21128,0.06929
2943.24691,0.06913
2942.28254,0.06891
2941.31818,0.06878
2940.35381,0.06877
2939.38944,0.06874
2938.42508,0.0686
2937.46071,0.0684
2936.49634,0.06827
2935.53198,0.06826
2934.56761,0.06829
2933.60324,0.06819
2932.63888,0.06796
2931.67451,0.06775
2930.71014,0.06756
2929.74578,0.06732
2928.78141,0.06714
2927.81704,0.06709
2926.85268,0.06708
2925.88831,0.06703
2924.92394,0.06692
2923.95958,0.06676
2922.99521,0.0666
2922.03084,0.0665
2921.06648,0.06646
2920.10211,0.06639
2919.13774,0.06618
2918.17338,0.0659
2917.20901,0.06572
2916.24464,0.06565
2915.28028,0.06552
2914.31591,0.06526
2913.35154,0.06499
2912.38718,0.06479
2911.42281,0.06464
2910.45844,0.06445
2909.49408,0.06419
2908.52971,0.06393
2907.56534,0.06373
2906.60098,0.06355
2905.63661,0.06339
2904.67224,0.06331
2903.70788,0.06325
2902.74351,0.063
2901.77914,0.06255
2900.81478,0.06233
2899.85041,0.06252
2898.88604,0.06281
2897.92168,0.0629
2896.95731,0.06282
2895.99294,0.06269
2895.02858,0.06261
2894.06421,0.06257
2893.09984,0.06257
2892.13548,0.06261
2891.17111,0.06269
2890.20674,0.06274
2889.24238,0.0627
2888.27801,0.06261
2887.31364,0.06252
2886.34928,0.06241
2885.38491,0.06225
2884.42054,0.06218
2883.45618,0.06231
2882.49181,0.06249
2881.52745,0.0626
2880.56308,0.06269
2879.59871,0.0628
2878.63435,0.06286
2877.66998,0.06289
2876.70561,0.06295
2875.74125,0.06303
2874.77688,0.06305
2873.81251,0.06301
2872.84815,0.06299
2871.88378,0.06304
2870.91941,0.06314
2869.95505,0.06321
2868.99068,0.0632
2868.02631,0.0632
2867.06195,0.0633
2866.09758,0.06345
2865.13321,0.06356
2864.16885,0.06367
2863.20448,0.06382
2862.24011,0.06395
2861.27575,0.06398
2860.31138,0.06399
2859.34701,0.06409
2858.38265,0.06427
2857.41828,0.0644
2856.45391,0.06441
2855.48955,0.06441
2854.52518,0.06451
2853.56081,0.06471
2852.59645,0.06488
2851.63208,0.06498
2850.66771,0.0651
2849.70335,0.06523
2848.73898,0.0653
2847.77461,0.06526
2846.81025,0.06519
2845.84588,0.06517
2844.88151,0.06524
2843.91715,0.0654
2842.95278,0.06554
2841.98841,0.06558
2841.02405,0.06548
2840.05968,0.06528
2839.09531,0.06517
2838.13095,0.06526
2837.16658,0.06537
2836.20221,0.06532
2835.23785,0.06522
2834.27348,0.06521
2833.30911,0.06523
2832.34475,0.06524
2831.38038,0.06527
2830.41601,0.06528
2829.45165,0.06525
2828.48728,0.06521
2827.52291,0.06518
2826.55855,0.06514
2825.59418,0.06507
2824.62981,0.06501
2823.66545,0.06502
2822.70108,0.06507
2821.73671,0.06512
2820.77235,0.06514
2819.80798,0.06513
2818.84362,0.06504
2817.87925,0.06486
2816.91488,0.06471
2815.95052,0.06464
2814.98615,0.06462
2814.02178,0.06461
2813.05742,0.06456
2812.09305,0.06442
2811.12868,0.06426
2810.16432,0.06421
2809.19995,0.06432
2808.23558,0.06448
2807.27122,0.06452
2806.30685,0.0644
2805.34248,0.06425
2804.37812,0.06418
2803.41375,0.06414
2802.44938,0.06404
2801.48502,0.06393
2800.52065,0.06387
2799.55628,0.0638
2798.59192,0.06371
2797.62755,0.06363
2796.66318,0.06358
2795.69882,0.06354
2794.73445,0.06345
2793.77008,0.0633
2792.80572,0.0632
2791.84135,0.06319
2790.87698,0.06321
2789.91262,0.06318
2788.94825,0.06309
2787.98388,0.06297
2787.01952,0.06292
2786.05515,0.06298
2785.09078,0.06308
2784.12642,0.06306
2783.16205,0.06289
2782.19768,0.06267
2781.23332,0.06252
2780.26895,0.06247
2779.30458,0.06247
2778.34022,0.06243
2777.37585,0.06225
2776.41148,0.06196
2775.44712,0.06169
2774.48275,0.06159
2773.51838,0.06162
2772.55402,0.06165
2771.58965,0.06158
2770.62528,0.06141
2769.66092,0.06122
2768.69655,0.06111
2767.73218,0.06111
2766.76782,0.06112
2765.80345,0.06104
2764.83908,0.0609
2763.87472,0.06079
2762.91035,0.06069
2761.94598,0.06053
2760.98162,0.06034
2760.01725,0.06018
2759.05288,0.06005
2758.08852,0.05991
2757.12415,0.05979
2756.15979,0.0597
2755.19542,0.0596
2754.23105,0.05949
2753.26669,0.0594
2752.30232,0.05931
2751.33795,0.05918
2750.37359,0.05905
2749.40922,0.05895
2748.44485,0.05884
2747.48049,0.05866
2746.51612,0.05843
2745.55175,0.05825
2744.58739,0.05816
2743.62302,0.0581
2742.65865,0.05801
2741.69429,0.05792
2740.72992,0.05787
2739.76555,0.0578
2738.80119,0.05767
2737.83682,0.05751
2736.87245,0.05738
2735.90809,0.05729
2734.94372,0.05722
2733.97935,0.05708
2733.01499,0.05685
2732.05062,0.0566
2731.08625,0.05646
2730.12189,0.0564
2729.15752,0.05632
2728.19315,0.05614
2727.22879,0.05592
2726.26442,0.05577
2725.30005,0.05574
2724.33569,0.05573
2723.37132,0.05559
2722.40695,0.05537
2721.44259,0.05521
2720.47822,0.05514
2719.51385,0.05508
2718.54949,0.05498
2717.58512,0.0549
2716.62075,0.05486
2715.65639,0.0548
2714.69202,0.05466
2713.72765,0.05446
2712.76329,0.05433
2711.79892,0.05427
2710.83455,0.05416
2709.87019,0.05397
2708.90582,0.0538
2707.94145,0.05371
2706.97709,0.05365
2706.01272,0.05355
2705.04835,0.05338
2704.08399,0.0532
2703.11962,0.05301
2702.15525,0.05282
2701.19089,0.05266
2700.22652,0.0526
2699.26215,0.0526
2698.29779,0.05255
2697.33342,0.05242
2696.36906,0.05227
2695.40469,0.05212
2694.44032,0.052
2693.47596,0.05192
2692.51159,0.05184
2691.54722,0.05167
2690.58286,0.05147
2689.61849,0.05136
2688.65412,0.05137
2687.68976,0.05138
2686.72539,0.05132
2685.76102,0.05122
2684.79666,0.05107
2683.83229,0.05089
2682.86792,0.05073
2681.90356,0.05057
2680.93919,0.0504
2679.97482,0.05028
2679.01046,0.05024
2678.04609,0.05022
2677.08172,0.05017
2676.11736,0.05009
2675.15299,0.04999
2674.18862,0.04983
2673.22426,0.04971
2672.25989,0.04969
2671.29552,0.04969
2670.33116,0.04962
2669.36679,0.04949
2668.40242,0.04936
2667.43806,0.04923
2666.47369,0.04911
2665.50932,0.04902
2664.54496,0.04893
2663.58059,0.04882
2662.61622,0.04871
2661.65186,0.04862
2660.68749,0.04856
2659.72312,0.04846
2658.75876,0.04826
2657.79439,0.04798
2656.83002,0.04772
2655.86566,0.04756
2654.90129,0.04752
2653.93692,0.04749
2652.97256,0.04735
2652.00819,0.04711
2651.04382,0.04684
2650.07946,0.04662
2649.11509,0.04648
2648.15072,0.04638
2647.18636,0.04627
2646.22199,0.04617
2645.25762,0.04612
2644.29326,0.04607
2643.32889,0.04596
2642.36452,0.04583
2641.40016,0.04571
2640.43579,0.04557
2639.47142,0.0454
2638.50706,0.04528
2637.54269,0.04516
2636.57832,0.04499
2635.61396,0.04477
2634.64959,0.04458
2633.68523,0.04448
2632.72086,0.04441
2631.75649,0.04432
2630.79213,0.04417
2629.82776,0.04402
2628.86339,0.04394
2627.89903,0.0439
2626.93466,0.04381
2625.97029,0.04363
2625.00593,0.04342
2624.04156,0.04323
2623.07719,0.04315
2622.11283,0.04322
2621.14846,0.04329
2620.18409,0.04321
2619.21973,0.04298
2618.25536,0.04278
2617.29099,0.04267
2616.32663,0.04258
2615.36226,0.04248
2614.39789,0.0424
2613.43353,0.04234
2612.46916,0.04229
2611.50479,0.04229
2610.54043,0.04231
2609.57606,0.04224
2608.61169,0.04209
2607.64733,0.04204
2606.68296,0.04212
2605.71859,0.04209
2604.75423,0.04181
2603.78986,0.04152
2602.82549,0.04146
2601.86113,0.04151
2600.89676,0.04144
2599.93239,0.0412
2598.96803,0.04098
2598.00366,0.04093
2597.03929,0.04102
2596.07493,0.04111
2595.11056,0.04105
2594.14619,0.04085
2593.18183,0.04066
2592.21746,0.04049
2591.25309,0.04036
2590.28873,0.04034
2589.32436,0.04045
2588.35999,0.04051
2587.39563,0.04042
2586.43126,0.04031
2585.46689,0.04022
2584.50253,0.04011
2583.53816,0.03996
2582.57379,0.03979
2581.60943,0.03965
2580.64506,0.0396
2579.68069,0.03964
2578.71633,0.0397
2577.75196,0.03967
2576.78759,0.03957
2575.82323,0.03944
2574.85886,0.03934
2573.89449,0.03929
2572.93013,0.03935
2571.96576,0.03949
2571.0014,0.03956
2570.03703,0.03941
2569.07266,0.03916
2568.1083,0.03905
2567.14393,0.03915
2566.17956,0.03923
2565.2152,0.0391
2564.25083,0.0389
2563.28646,0.03882
2562.3221,0.03883
2561.35773,0.03868
2560.39336,0.03836
2559.429,0.0381
2558.46463,0.038
2557.50026,0.03797
2556.5359,0.03795
2555.57153,0.03798
2554.60716,0.0381
2553.6428,0.03821
2552.67843,0.03814
2551.71406,0.03792
2550.7497,0.03774
2549.78533,0.03766
2548.82096,0.03755
2547.8566,0.03741
2546.89223,0.03741
2545.92786,0.03746
2544.9635,0.03737
2543.99913,0.03717
2543.03476,0.03707
2542.0704,0.03708
2541.10603,0.03702
2540.14166,0.03683
2539.1773,0.03664
2538.21293,0.03658
2537.24856,0.03674
2536.2842,0.03692
2535.31983,0.03691
2534.35546,0.03679
2533.3911,0.03681
2532.42673,0.03687
2531.46236,0.03669
2530.498,0.03637
2529.53363,0.03627
2528.56926,0.03634
2527.6049,0.03628
2526.64053,0.03617
2525.67616,0.03619
2524.7118,0.03619
2523.74743,0.03608
2522.78306,0.03608
2521.8187,0.03623
2520.85433,0.03617
2519.88996,0.03591
2518.9256,0.03578
2517.96123,0.03581
2516.99686,0.03574
2516.0325,0.03556
2515.06813,0.03539
2514.10376,0.03516
2513.1394,0.03489
2512.17503,0.03478
2511.21066,0.0349
2510.2463,0.03507
2509.28193,0.03515
2508.31757,0.03516
2507.3532,0.03516
2506.38883,0.03513
2505.42447,0.03499
2504.4601,0.03477
2503.49573,0.03463
2502.53137,0.03464
2501.567,0.03466
2500.60263,0.03466
2499.63827,0.03472
2498.6739,0.03478
2497.70953,0.03468
2496.74517,0.03444
2495.7808,0.03419
2494.81643,0.034
2493.85207,0.03391
2492.8877,0.03391
2491.92333,0.03388
2490.95897,0.03376
2489.9946,0.03365
2489.03023,0.03362
2488.06587,0.03353
2487.1015,0.03333
2486.13713,0.0333
2485.17277,0.03354
2484.2084,0.03367
2483.24403,0.0334
2482.27967,0.03308
2481.3153,0.03308
2480.35093,0.03325
2479.38657,0.03333
2478.4222,0.03331
2477.45783,0.03324
2476.49347,0.03311
2475.5291,0.03297
2474.56473,0.03287
2473.60037,0.03281
2472.636,0.03278
2471.67163,0.03274
2470.70727,0.03262
2469.7429,0.03236
2468.77853,0.03203
2467.81417,0.0318
2466.8498,0.03172
2465.88543,0.03173
2464.92107,0.03173
2463.9567,0.03166
2462.99233,0.03158
2462.02797,0.03169
2461.0636,0.03196
2460.09923,0.03202
2459.13487,0.03173
2458.1705,0.03143
2457.20613,0.03133
2456.24177,0.03123
2455.2774,0.03101
2454.31303,0.03086
2453.34867,0.03086
2452.3843,0.03087
2451.41993,0.03074
2450.45557,0.0305
2449.4912,0.03031
2448.52684,0.0303
2447.56247,0.03033
2446.5981,0.03025
2445.63374,0.03018
2444.66937,0.03021
2443.705,0.03027
2442.74064,0.03023
2441.77627,0.03008
2440.8119,0.02989
2439.84754,0.02986
2438.88317,0.03002
2437.9188,0.03009
2436.95444,0.02985
2435.99007,0.02956
2435.0257,0.02947
2434.06134,0.0295
2433.09697,0.02937
2432.1326,0.02918
2431.16824,0.02921
2430.20387,0.02942
2429.2395,0.0295
2428.27514,0.02935
2427.31077,0.02918
2426.3464,0.02913
2425.38204,0.02908
2424.41767,0.02899
2423.4533,0.02888
2422.48894,0.02874
2421.52457,0.02855
2420.5602,0.02834
2419.59584,0.02816
2418.63147,0.02805
2417.6671,0.02801
2416.70274,0.02799
2415.73837,0.02789
2414.774,0.02771
2413.80964,0.02761
2412.84527,0.02771
2411.8809,0.02789
2410.91654,0.02792
2409.95217,0.02777
2408.9878,0.02761
2408.02344,0.02754
2407.05907,0.02756
2406.0947,0.02772
2405.13034,0.02786
2404.16597,0.02765
2403.2016,0.02721
2402.23724,0.02704
2401.27287,0.02715
2400.3085,0.0271
2399.34414,0.02681
2398.37977,0.02664
2397.4154,0.0267
2396.45104,0.02678
2395.48667,0.02676
2394.5223,0.02668
2393.55794,0.0266
2392.59357,0.02653
2391.6292,0.02646
2390.66484,0.02638
2389.70047,0.02631
2388.7361,0.02624
2387.77174,0.02616
2386.80737,0.02609
2385.84301,0.02602
2384.87864,0.02594
2383.91427,0.02587
2382.94991,0.0258
2381.98554,0.02572
2381.02117,0.02565
2380.05681,0.02558
2379.09244,0.0255
2378.12807,0.02543
2377.16371,0.02536
2376.19934,0.02528
2375.23497,0.02521
2374.27061,0.02514
2373.30624,0.02506
2372.34187,0.02499
2371.37751,0.02492
2370.41314,0.02485
2369.44877,0.02477
2368.48441,0.0247
2367.52004,0.02463
2366.55567,0.02455
2365.59131,0.02448
2364.62694,0.02441
2363.66257,0.02434
2362.69821,0.02426
2361.73384,0.02419
2360.76947,0.02412
2359.80511,0.02404
2358.84074,0.02397
2357.87637,0.0239
2356.91201,0.02383
2355.94764,0.02375
2354.98327,0.02368
2354.01891,0.02361
2353.05454,0.02354
2352.09017,0.02346
2351.12581,0.02339
2350.16144,0.02332
2349.19707,0.02325
2348.23271,0.02317
2347.26834,0.0231
2346.30397,0.02303
2345.33961,0.02296
2344.37524,0.02288
2343.41087,0.02281
2342.44651,0.02274
2341.48214,0.02267
2340.51777,0.02259
2339.55341,0.02252
2338.58904,0.02245
2337.62467,0.02238
2336.66031,0.02231
2335.69594,0.02223
2334.73157,0.02216
2333.76721,0.02209
2332.80284,0.02202
2331.83847,0.02194
2330.87411,0.02187
2329.90974,0.0218
2328.94537,0.02173
2327.98101,0.02166
2327.01664,0.02158
2326.05227,0.02151
2325.08791,0.02144
2324.12354,0.02137
2323.15918,0.0213
2322.19481,0.02123
2321.23044,0.02115
2320.26608,0.02108
2319.30171,0.02101
2318.33734,0.02094
2317.37298,0.02087
2316.40861,0.02079
2315.44424,0.02072
2314.47988,0.02065
2313.51551,0.02058
2312.55114,0.02051
2311.58678,0.02044
2310.62241,0.02036
2309.65804,0.02029
2308.69368,0.02022
2307.72931,0.02015
2306.76494,0.02008
2305.80058,0.02001
2304.83621,0.01994
2303.87184,0.01986
2302.90748,0.01979
2301.94311,0.01972
2300.97874,0.01965
2300.01438,0.01958
2299.05001,0.01951
2298.08564,0.01944
2297.12128,0.01936
2296.15691,0.0193
2295.19254,0.01923
2294.22818,0.01913
2293.26381,0.01912
2292.29944,0.01926
2291.33508,0.01932
2290.37071,0.01914
2289.40634,0.01901
2288.44198,0.01907
2287.47761,0.01901
2286.51324,0.01867
2285.54888,0.01842
2284.58451,0.0185
2283.62014,0.01875
2282.65578,0.01901
2281.69141,0.01927
2280.72704,0.01949
2279.76268,0.01954
2278.79831,0.01952
2277.83394,0.01961
2276.86958,0.01973
2275.90521,0.01953
2274.94084,0.01899
2273.97648,0.01845
2273.01211,0.01806
2272.04774,0.01783
2271.08338,0.01779
2270.11901,0.01792
2269.15464,0.01797
2268.19028,0.01773
2267.22591,0.0173
2266.26154,0.01688
2265.29718,0.01663
2264.33281,0.01671
2263.36844,0.01719
2262.40408,0.01788
2261.43971,0.01843
2260.47535,0.01863
2259.51098,0.01841
2258.54661,0.01792
2257.58225,0.01763
2256.61788,0.01785
2255.65351,0.01816
2254.68915,0.018
2253.72478,0.01738
2252.76041,0.01676
2251.79605,0.01647
2250.83168,0.01671
2249.86731,0.01733
2248.90295,0.01768
2247.93858,0.01743
2246.97421,0.01706
2246.00985,0.01692
2245.04548,0.01669
2244.08111,0.01616
2243.11675,0.01583
2242.15238,0.01593
2241.18801,0.01617
2240.22365,0.01633
2239.25928,0.01659
2238.29491,0.01716
2237.33055,0.01773
2236.36618,0.01782
2235.40181,0.01737
2234.43745,0.01691
2233.47308,0.01683
2232.50871,0.01689
2231.54435,0.01671
2230.57998,0.01616
2229.61561,0.01541
2228.65125,0.01473
2227.68688,0.01442
2226.72251,0.01476
2225.75815,0.01558
2224.79378,0.01618
2223.82941,0.01623
2222.86505,0.0164
2221.90068,0.01693
2220.93631,0.01694
2219.97195,0.01592
2219.00758,0.0145
2218.04321,0.01377
2217.07885,0.01444
2216.11448,0.01602
2215.15011,0.01676
2214.18575,0.01582
2213.22138,0.01477
2212.25701,0.01506
2211.29265,0.0158
2210.32828,0.01568
2209.36391,0.01488
2208.39955,0.01414
2207.43518,0.01361
2206.47081,0.01368
2205.50645,0.01453
2204.54208,0.01521
2203.57771,0.01492
2202.61335,0.01454
2201.64898,0.01525
2200.68462,0.01633
2199.72025,0.0163
2198.75588,0.0151
2197.79152,0.01409
2196.82715,0.01435
2195.86278,0.01543
2194.89842,0.01616
2193.93405,0.01595
2192.96968,0.01484
2192.00532,0.01326
2191.04095,0.01204
2190.07658,0.012
2189.11222,0.01299
2188.14785,0.01419
2187.18348,0.01496
2186.21912,0.01472
2185.25475,0.01327
2184.29038,0.01151
2183.32602,0.01096
2182.36165,0.01179
2181.39728,0.01278
2180.43292,0.01332
2179.46855,0.01356
2178.50418,0.01311
2177.53982,0.01175
2176.57545,0.01065
2175.61108,0.01045
2174.64672,0.01043
2173.68235,0.01072
2172.71798,0.0119
2171.75362,0.01331
2170.78925,0.01393
2169.82488,0.01383
2168.86052,0.01302
2167.89615,0.01157
2166.93178,0.01136
2165.96742,0.01347
2165.00305,0.01581
2164.03868,0.01571
2163.07432,0.01358
2162.10995,0.01179
2161.14558,0.01143
2160.18122,0.0124
2159.21685,0.01365
2158.25248,0.01403
2157.28812,0.01329
2156.32375,0.01166
2155.35938,0.01004
2154.39502,0.0098
2153.43065,0.01178
2152.46628,0.01385
2151.50192,0.0132
2150.53755,0.01063
2149.57318,0.00927
2148.60882,0.01015
2147.64445,0.01136
2146.68008,0.01184
2145.71572,0.0121
2144.75135,0.01198
2143.78698,0.01121
2142.82262,0.01051
2141.85825,0.01063
2140.89388,0.01128
2139.92952,0.0119
2138.96515,0.01223
2138.00079,0.01208
2137.03642,0.01169
2136.07205,0.01164
2135.10769,0.01209
2134.14332,0.01266
2133.17895,0.01281
2132.21459,0.01251
2131.25022,0.0122
2130.28585,0.01236
2129.32149,0.01282
2128.35712,0.01289
2127.39275,0.01237
2126.42839,0.01206
2125.46402,0.01237
2124.49965,0.01254
2123.53529,0.01216
2122.57092,0.01198
2121.60655,0.01235
2120.64219,0.01253
2119.67782,0.01216
2118.71345,0.01174
2117.74909,0.01145
2116.78472,0.01111
2115.82035,0.0109
2114.85599,0.01111
2113.89162,0.0115
2112.92725,0.01174
2111.96289,0.01193
2110.99852,0.01227
2110.03415,0.01262
2109.06979,0.01263
2108.10542,0.01221
2107.14105,0.01171
2106.17669,0.01152
2105.21232,0.01159
2104.24795,0.01158
2103.28359,0.01146
2102.31922,0.0115
2101.35485,0.01173
2100.39049,0.01187
2099.42612,0.01156
2098.46175,0.01068
2097.49739,0.0098
2096.53302,0.00979
2095.56865,0.01066
2094.60429,0.0114
2093.63992,0.01137
2092.67555,0.01114
2091.71119,0.01124
2090.74682,0.01138
2089.78245,0.01115
2088.81809,0.01077
2087.85372,0.01067
2086.88935,0.01093
2085.92499,0.01122
2084.96062,0.01123
2083.99625,0.01105
2083.03189,0.01096
2082.06752,0.01102
2081.10315,0.01093
2080.13879,0.0106
2079.17442,0.0103
2078.21005,0.0102
2077.24569,0.01034
2076.28132,0.01055
2075.31696,0.01048
2074.35259,0.01015
2073.38822,0.00996
2072.42386,0.00991
2071.45949,0.00963
2070.49512,0.00923
2069.53076,0.00911
2068.56639,0.00928
2067.60202,0.00961
2066.63766,0.00987
2065.67329,0.0097
2064.70892,0.00888
2063.74456,0.008
2062.78019,0.00803
2061.81582,0.0089
2060.85146,0.00958
2059.88709,0.00955
2058.92272,0.00922
2057.95836,0.00899
2056.99399,0.00883
2056.02962,0.00854
2055.06526,0.00805
2054.10089,0.00769
2053.13652,0.00768
2052.17216,0.00755
2051.20779,0.00709
2050.24342,0.00703
2049.27906,0.00756
2048.31469,0.00762
2047.35032,0.00672
2046.38596,0.00581
2045.42159,0.00571
2044.45722,0.00579
2043.49286,0.00542
2042.52849,0.00505
2041.56412,0.00537
2040.59976,0.00593
2039.63539,0.0055
2038.67102,0.00388
2037.70666,0.00242
2036.74229,0.00267
2035.77792,0.00417
2034.81356,0.00487
2033.84919,0.00446
2032.88482,0.00439
2031.92046,0.00516
2030.95609,0.00584
2029.99172,0.00611
2029.02736,0.00621
2028.06299,0.00592
2027.09862,0.00589
2026.13426,0.007
2025.16989,0.0084
2024.20552,0.00805
2023.24116,0.00578
2022.27679,0.00363
2021.31242,0.00316
2020.34806,0.0046
2019.38369,0.00703
2018.41932,0.00892
2017.45496,0.00894
2016.49059,0.00705
2015.52622,0.00473
2014.56186,0.0033
2013.59749,0.00277
2012.63313,0.0022
2011.66876,0.00176
2010.70439,0.00237
2009.74003,0.00359
2008.77566,0.00427
2007.81129,0.00394
2006.84693,0.0028
2005.88256,0.00173
2004.91819,0.00252
2003.95383,0.0054
2002.98946,0.00774
2002.02509,0.00756
2001.06073,0.0057
2000.09636,0.00408
1999.13199,0.00376
1998.16763,0.00471
1997.20326,0.00613
1996.23889,0.00703
1995.27453,0.00692
1994.31016,0.00587
1993.34579,0.00486
1992.38143,0.00474
1991.41706,0.00515
1990.45269,0.00523
1989.48833,0.00507
1988.52396,0.00529
1987.55959,0.00524
1986.59523,0.00415
1985.63086,0.00303
1984.66649,0.00315
1983.70213,0.00382
1982.73776,0.00429
1981.77339,0.00536
1980.80903,0.00654
1979.84466,0.00625
1978.88029,0.00451
1977.91593,0.00233
1976.95156,0.00047
1975.98719,0.0004
1975.02283,0.00318
1974.05846,0.00668
1973.09409,0.00813
1972.12973,0.00743
1971.16536,0.00587
1970.20099,0.00411
1969.23663,0.00278
1968.27226,0.00285
1967.30789,0.00376
1966.34353,0.00411
1965.37916,0.00352
1964.41479,0.00263
1963.45043,0.00206
1962.48606,0.00224
1961.52169,0.00346
1960.55733,0.0049
1959.59296,0.00538
1958.62859,0.00464
1957.66423,0.00343
1956.69986,0.00285
1955.73549,0.00319
1954.77113,0.0036
1953.80676,0.00347
1952.8424,0.00366
1951.87803,0.00464
1950.91366,0.00513
1949.9493,0.00442
1948.98493,0.00366
1948.02056,0.00374
1947.0562,0.00395
1946.09183,0.00369
1945.12746,0.00341
1944.1631,0.00353
1943.19873,0.00379
1942.23436,0.00387
1941.27,0.00387
1940.30563,0.00405
1939.34126,0.00459
1938.3769,0.00527
1937.41253,0.00546
1936.44816,0.00488
1935.4838,0.00409
1934.51943,0.00366
1933.55506,0.00351
1932.5907,0.00337
1931.62633,0.0032
1930.66196,0.00303
1929.6976,0.0029
1928.73323,0.003
1927.76886,0.00339
1926.8045,0.00371
1925.84013,0.00364
1924.87576,0.00325
1923.9114,0.00282
1922.94703,0.00271
1921.98266,0.00311
1921.0183,0.00363
1920.05393,0.00356
1919.08956,0.00279
1918.1252,0.00209
1917.16083,0.0022
1916.19646,0.00267
1915.2321,0.00263
1914.26773,0.00225
1913.30336,0.00234
1912.339,0.00295
1911.37463,0.00334
1910.41026,0.00312
1909.4459,0.00258
1908.48153,0.00225
1907.51716,0.00237
1906.5528,0.00269
1905.58843,0.00274
1904.62406,0.00243
1903.6597,0.00214
1902.69533,0.00211
1901.73096,0.00207
1900.7666,0.00187
1899.80223,0.00179
1898.83786,0.0021
1897.8735,0.00245
1896.90913,0.00231
1895.94476,0.00191
1894.9804,0.00177
1894.01603,0.00187
1893.05166,0.00183
1892.0873,0.00172
1891.12293,0.00169
1890.15857,0.00161
1889.1942,0.00147
1888.22983,0.00153
1887.26547,0.00183
1886.3011,0.0021
1885.33673,0.00204
1884.37237,0.00173
1883.408,0.00155
1882.44363,0.00174
1881.47927,0.00191
1880.5149,0.00174
1879.55053,0.00146
1878.58617,0.00141
1877.6218,0.00163
1876.65743,0.00192
1875.69307,0.00217
1874.7287,0.00226
1873.76433,0.00206
1872.79997,0.00168
1871.8356,0.00133
1870.87123,0.00105
1869.90687,0.00063
1868.9425,0.00016
1867.97813,6e-05
1867.01377,0.00043
1866.0494,0.001
1865.08503,0.00153
1864.12067,0.00199
1863.1563,0.0023
1862.19193,0.00244
1861.22757,0.00251
1860.2632,0.00246
1859.29883,0.00226
1858.33447,0.00215
1857.3701,0.00236
1856.40573,0.00277
1855.44137,0.00311
1854.477,0.00325
1853.51263,0.00328
1852.54827,0.00341
1851.5839,0.00377
1850.61953,0.00411
1849.65517,0.00409
1848.6908,0.0038
1847.72643,0.00373
1846.76207,0.00398
1845.7977,0.00395
1844.83333,0.00347
1843.86897,0.00333
1842.9046,0.00413
1841.94023,0.00531
1840.97587,0.00613
1840.0115,0.0065
1839.04713,0.00662
1838.08277,0.00659
1837.1184,0.00666
1836.15403,0.00703
1835.18967,0.00759
1834.2253,0.00806
1833.26093,0.0084
1832.29657,0.00854
1831.3322,0.00831
1830.36783,0.00788
1829.40347,0.00791
1828.4391,0.00871
1827.47474,0.00951
1826.51037,0.00969
1825.546,0.0095
1824.58164,0.00968
1823.61727,0.01031
1822.6529,0.01097
1821.68854,0.0114
1820.72417,0.01167
1819.7598,0.0119
1818.79544,0.0121
1817.83107,0.01224
1816.8667,0.01235
1815.90234,0.01249
1814.93797,0.01274
1813.9736,0.013
1813.00924,0.01314
1812.04487,0.01316
1811.0805,0.01319
1810.11614,0.01336
1809.15177,0.01358
1808.1874,0.0138
1807.22304,0.01402
1806.25867,0.01427
1805.2943,0.01447
1804.32994,0.01462
1803.36557,0.01466
1802.4012,0.01456
1801.43684,0.01447
1800.47247,0.01455
1799.5081,0.01486
1798.54374,0.01532
1797.57937,0.01568
1796.615,0.01587
1795.65064,0.01613
1794.68627,0.01654
1793.7219,0.0167
1792.75754,0.01656
1791.79317,0.01665
1790.8288,0.01739
1789.86444,0.01851
1788.90007,0.01955
1787.9357,0.02033
1786.97134,0.02082
1786.00697,0.02112
1785.0426,0.02149
1784.07824,0.02223
1783.11387,0.02316
1782.1495,0.02379
1781.18514,0.02414
1780.22077,0.02467
1779.2564,0.02564
1778.29204,0.02673
1777.32767,0.02757
1776.3633,0.02814
1775.39894,0.02878
1774.43457,0.0294
1773.4702,0.02958
1772.50584,0.02967
1771.54147,0.0307
1770.5771,0.03276
1769.61274,0.03464
1768.64837,0.03573
1767.684,0.03665
1766.71964,0.03792
1765.75527,0.03929
1764.79091,0.04051
1763.82654,0.04149
1762.86217,0.04213
1761.89781,0.04272
1760.93344,0.04386
1759.96907,0.04547
1759.00471,0.04694
1758.04034,0.0479
1757.07597,0.04868
1756.11161,0.04968
1755.14724,0.05091
1754.18287,0.05213
1753.21851,0.05295
1752.25414,0.0533
1751.28977,0.05352
1750.32541,0.0542
1749.36104,0.05518
1748.39667,0.05616
1747.43231,0.05718
1746.46794,0.05839
1745.50357,0.05951
1744.53921,0.06015
1743.57484,0.06059
1742.61047,0.0613
1741.64611,0.06205
1740.68174,0.06237
1739.71737,0.06256
1738.75301,0.06337
1737.78864,0.06454
1736.82427,0.06541
1735.85991,0.06515
1734.89554,0.06396
1733.93117,0.06306
1732.96681,0.06374
1732.00244,0.06508
1731.03807,0.06568
1730.07371,0.06552
1729.10934,0.06556
1728.14497,0.0658
1727.18061,0.0659
1726.21624,0.06579
1725.25187,0.06555
1724.28751,0.06518
1723.32314,0.06477
1722.35877,0.06438
1721.39441,0.06403
1720.43004,0.06345
1719.46567,0.06209
1718.50131,0.06016
1717.53694,0.05885
1716.57257,0.05876
1715.60821,0.05881
1714.64384,0.05846
1713.67947,0.05828
1712.71511,0.0584
1711.75074,0.05808
1710.78637,0.05717
1709.82201,0.05635
1708.85764,0.05572
1707.89327,0.05474
1706.92891,0.05329
1705.96454,0.05196
1705.00017,0.0511
1704.03581,0.05062
1703.07144,0.05054
1702.10708,0.04944
1701.14271,0.0467
1700.17834,0.04373
1699.21398,0.04344
1698.24961,0.04454
1697.28524,0.04443
1696.32088,0.04256
1695.35651,0.04119
1694.39214,0.04133
1693.42778,0.04186
1692.46341,0.04167
1691.49904,0.04071
1690.53468,0.03959
1689.57031,0.03852
1688.60594,0.03767
1687.64158,0.03725
1686.67721,0.03668
1685.71284,0.03472
1684.74848,0.03165
1683.78411,0.02984
1682.81974,0.03058
1681.85538,0.03193
1680.89101,0.03212
1679.92664,0.0315
1678.96228,0.03118
1677.99791,0.03102
1677.03354,0.03023
1676.06918,0.02871
1675.10481,0.02747
1674.14044,0.02747
1673.17608,0.02776
1672.21171,0.02741
1671.24734,0.02641
1670.28298,0.02543
1669.31861,0.0248
1668.35424,0.02499
1667.38988,0.02581
1666.42551,0.02644
1665.46114,0.02646
1664.49678,0.0259
1663.53241,0.02503
1662.56804,0.0244
1661.60368,0.02458
1660.63931,0.02522
1659.67494,0.02565
1658.71058,0.02576
1657.74621,0.0258
1656.78184,0.02585
1655.81748,0.0256
1654.85311,0.02381
1653.88874,0.02112
1652.92438,0.01987
1651.96001,0.0221
1650.99564,0.0253
1650.03128,0.02705
1649.06691,0.02681
1648.10254,0.02602
1647.13818,0.02562
1646.17381,0.02625
1645.20944,0.02789
1644.24508,0.02966
1643.28071,0.031
1642.31635,0.03183
1641.35198,0.03251
1640.38761,0.0332
1639.42325,0.03386
1638.45888,0.0345
1637.49451,0.03476
1636.53015,0.03469
1635.56578,0.03498
1634.60141,0.03674
1633.63705,0.03937
1632.67268,0.04164
1631.70831,0.04311
1630.74395,0.04429
1629.77958,0.04531
1628.81521,0.04607
1627.85085,0.04696
1626.88648,0.04843
1625.92211,0.05001
1624.95775,0.05088
1623.99338,0.0512
1623.02901,0.05206
1622.06465,0.05378
1621.10028,0.05551
1620.13591,0.05672
1619.17155,0.05742
1618.20718,0.05741
1617.24281,0.05688
1616.27845,0.05699
1615.31408,0.0584
1614.34971,0.06005
1613.38535,0.06104
1612.42098,0.06148
1611.45661,0.06179
1610.49225,0.06194
1609.52788,0.06209
1608.56351,0.06244
1607.59915,0.06293
1606.63478,0.06336
1605.67041,0.06371
1604.70605,0.06395
1603.74168,0.06412
1602.77731,0.06432
1601.81295,0.06467
1600.84858,0.06508
1599.88421,0.06549
1598.91985,0.06588
1597.95548,0.06619
1596.99111,0.06643
1596.02675,0.0667
1595.06238,0.06711
1594.09801,0.06762
1593.13365,0.06814
1592.16928,0.06854
1591.20491,0.06878
1590.24055,0.069
1589.27618,0.06935
1588.31181,0.06975
1587.34745,0.07001
1586.38308,0.07012
1585.41871,0.0702
1584.45435,0.07029
1583.48998,0.07028
1582.52561,0.07013
1581.56125,0.06992
1580.59688,0.06962
1579.63252,0.06928
1578.66815,0.06877
1577.70378,0.0676
1576.73942,0.06591
1575.77505,0.06478
1574.81068,0.06498
1573.84632,0.06541
1572.88195,0.06522
1571.91758,0.06428
1570.95322,0.06264
1569.98885,0.06052
1569.02448,0.05909
1568.06012,0.05898
1567.09575,0.05898
1566.13138,0.05806
1565.16702,0.05651
1564.20265,0.05523
1563.23828,0.0545
1562.27392,0.05378
1561.30955,0.05179
1560.34518,0.04788
1559.38082,0.04356
1558.41645,0.04158
1557.45208,0.04251
1556.48772,0.04426
1555.52335,0.04443
1554.55898,0.04315
1553.59462,0.04193
1552.63025,0.04149
1551.66588,0.04081
1550.70152,0.03932
1549.73715,0.0377
1548.77278,0.0368
1547.80842,0.03637
1546.84405,0.03537
1545.87968,0.03353
1544.91532,0.03163
1543.95095,0.03028
1542.98658,0.02907
1542.02222,0.02741
1541.05785,0.02515
1540.09348,0.0229
1539.12912,0.02204
1538.16475,0.02308
1537.20038,0.0245
1536.23602,0.02478
1535.27165,0.02357
1534.30728,0.02175
1533.34292,0.02023
1532.37855,0.01988
1531.41418,0.02014
1530.44982,0.0201
1529.48545,0.01931
1528.52108,0.01822
1527.55672,0.01723
1526.59235,0.01639
1525.62798,0.01574
1524.66362,0.01539
1523.69925,0.01486
1522.73488,0.01342
1521.77052,0.01158
1520.80615,0.01098
1519.84178,0.01185
1518.87742,0.01253
1517.91305,0.01188
1516.94869,0.01087
1515.98432,0.01094
1515.01995,0.0118
1514.05559,0.01235
1513.09122,0.01215
1512.12685,0.01177
1511.16249,0.0115
1510.19812,0.01113
1509.23375,0.01034
1508.26939,0.00883
1507.30502,0.00718
1506.34065,0.0067
1505.37629,0.00838
1504.41192,0.01082
1503.44755,0.01239
1502.48319,0.01282
1501.51882,0.01294
1500.55445,0.01293
1499.59009,0.0128
1498.62572,0.01273
1497.66135,0.01278
1496.69699,0.01291
1495.73262,0.01341
1494.76825,0.01443
1493.80389,0.01546
1492.83952,0.01595
1491.87515,0.0157
1490.91079,0.01509
1489.94642,0.01494
1488.98205,0.01561
1488.01769,0.01647
1487.05332,0.01713
1486.08895,0.01788
1485.12459,0.0188
1484.16022,0.01952
1483.19585,0.01992
1482.23149,0.02014
1481.26712,0.02037
1480.30275,0.02082
1479.33839,0.02148
1478.37402,0.02193
1477.40965,0.0219
1476.44529,0.0218
1475.48092,0.02213
1474.51655,0.02242
1473.55219,0.02209
1472.58782,0.02181
1471.62345,0.0227
1470.65909,0.02449
1469.69472,0.02608
1468.73035,0.02705
1467.76599,0.02774
1466.80162,0.02813
1465.83725,0.02816
1464.87289,0.02833
1463.90852,0.02925
1462.94415,0.03062
1461.97979,0.03176
1461.01542,0.03238
1460.05105,0.03257
1459.08669,0.03241
1458.12232,0.03226
1457.15795,0.03256
1456.19359,0.03374
1455.22922,0.03557
1454.26486,0.03749
1453.30049,0.03893
1452.33612,0.03997
1451.37176,0.04101
1450.40739,0.04214
1449.44302,0.04311
1448.47866,0.04389
1447.51429,0.0449
1446.54992,0.04631
1445.58556,0.04776
1444.62119,0.049
1443.65682,0.05012
1442.69246,0.05125
1441.72809,0.05236
1440.76372,0.05345
1439.79936,0.05454
1438.83499,0.05532
1437.87062,0.05558
1436.90626,0.05575
1435.94189,0.05681
1434.97752,0.05861
1434.01316,0.06027
1433.04879,0.06139
1432.08442,0.06226
1431.12006,0.06291
1430.15569,0.06344
1429.19132,0.06426
1428.22696,0.06544
1427.26259,0.06666
1426.29822,0.06757
1425.33386,0.06799
1424.36949,0.06814
1423.40512,0.06862
1422.44076,0.06972
1421.47639,0.07061
1420.51202,0.07052
1419.54766,0.06992
1418.58329,0.07006
1417.61892,0.07113
1416.65456,0.07231
1415.69019,0.0732
1414.72582,0.07389
1413.76146,0.07446
1412.79709,0.07481
1411.83272,0.07504
1410.86836,0.07524
1409.90399,0.07545
1408.93962,0.07575
1407.97526,0.07617
1407.01089,0.07656
1406.04652,0.07675
1405.08216,0.0769
1404.11779,0.07738
1403.15342,0.07816
1402.18906,0.07893
1401.22469,0.07936
1400.26032,0.0794
1399.29596,0.07934
1398.33159,0.07973
1397.36722,0.08047
1396.40286,0.0806
1395.43849,0.07983
1394.47413,0.07918
1393.50976,0.07987
1392.54539,0.08145
1391.58103,0.08281
1390.61666,0.08357
1389.65229,0.08402
1388.68793,0.08413
1387.72356,0.08392
1386.75919,0.08394
1385.79483,0.08448
1384.83046,0.08517
1383.86609,0.08566
1382.90173,0.08603
1381.93736,0.08642
1380.97299,0.0868
1380.00863,0.0871
1379.04426,0.08735
1378.07989,0.08771
1377.11553,0.08819
1376.15116,0.08853
1375.18679,0.08854
1374.22243,0.0886
1373.25806,0.08914
1372.29369,0.09009
1371.32933,0.091
1370.36496,0.09155
1369.40059,0.09185
1368.43623,0.09214
1367.47186,0.09256
1366.50749,0.09307
1365.54313,0.09347
1364.57876,0.09357
1363.61439,0.0935
1362.65003,0.09366
1361.68566,0.0942
1360.72129,0.09489
1359.75693,0.09547
1358.79256,0.09592
1357.82819,0.09629
1356.86383,0.09659
1355.89946,0.09687
1354.93509,0.09717
1353.97073,0.09755
1353.00636,0.09796
1352.04199,0.09831
1351.07763,0.09855
1350.11326,0.09875
1349.14889,0.09898
1348.18453,0.0993
1347.22016,0.09964
1346.25579,0.09995
1345.29143,0.10021
1344.32706,0.10047
1343.36269,0.10081
1342.39833,0.10117
1341.43396,0.10136
1340.46959,0.10133
1339.50523,0.10133
1338.54086,0.10164
1337.57649,0.10216
1336.61213,0.10271
1335.64776,0.10321
1334.68339,0.10368
1333.71903,0.10411
1332.75466,0.10447
1331.7903,0.10485
1330.82593,0.10527
1329.86156,0.10569
1328.8972,0.10608
1327.93283,0.10647
1326.96846,0.10692
1326.0041,0.10737
1325.03973,0.10778
1324.07536,0.10821
1323.111,0.10868
1322.14663,0.10915
1321.18226,0.10953
1320.2179,0.10987
1319.25353,0.1103
1318.28916,0.11088
1317.3248,0.11152
1316.36043,0.11213
1315.39606,0.11269
1314.4317,0.11321
1313.46733,0.11373
1312.50296,0.1143
1311.5386,0.11496
1310.57423,0.11562
1309.60986,0.11623
1308.6455,0.1168
1307.68113,0.11742
1306.71676,0.11809
1305.7524,0.11874
1304.78803,0.11935
1303.82366,0.11994
1302.8593,0.12051
1301.89493,0.12103
1300.93056,0.12155
1299.9662,0.12212
1299.00183,0.12271
1298.03746,0.1233
1297.0731,0.12388
1296.10873,0.12446
1295.14436,0.12502
1294.18,0.12554
1293.21563,0.12613
1292.25126,0.12677
1291.2869,0.12736
1290.32253,0.12786
1289.35816,0.12832
1288.3938,0.12875
1287.42943,0.1292
1286.46506,0.1297
1285.5007,0.13016
1284.53633,0.13056
1283.57196,0.13095
1282.6076,0.13138
1281.64323,0.13182
1280.67886,0.13224
1279.7145,0.13262
1278.75013,0.13295
1277.78576,0.13324
1276.8214,0.13355
1275.85703,0.1339
1274.89266,0.13424
1273.9283,0.13454
1272.96393,0.13485
1271.99956,0.13518
1271.0352,0.13554
1270.07083,0.13589
1269.10647,0.13619
1268.1421,0.13639
1267.17773,0.13653
1266.21337,0.13671
1265.249,0.13696
1264.28463,0.13725
1263.32027,0.13749
1262.3559,0.13766
1261.39153,0.13775
1260.42717,0.13778
1259.4628,0.13782
1258.49843,0.13793
1257.53407,0.13811
1256.5697,0.13828
1255.60533,0.13844
1254.64097,0.13855
1253.6766,0.13863
1252.71223,0.13871
1251.74787,0.1388
1250.7835,0.13891
1249.81913,0.13912
1248.85477,0.1395
1247.8904,0.13993
1246.92603,0.14028
1245.96167,0.14065
1244.9973,0.14113
1244.03293,0.14147
1243.06857,0.14143
1242.1042,0.14132
1241.13983,0.14163
1240.17547,0.14243
1239.2111,0.1433
1238.24673,0.14388
1237.28237,0.14422
1236.318,0.14445
1235.35363,0.14465
1234.38927,0.1448
1233.4249,0.14497
1232.46053,0.14525
1231.49617,0.14564
1230.5318,0.14602
1229.56743,0.14634
1228.60307,0.14668
1227.6387,0.1471
1226.67433,0.14754
1225.70997,0.14788
1224.7456,0.14812
1223.78123,0.14834
1222.81687,0.14863
1221.8525,0.14895
1220.88813,0.14923
1219.92377,0.14945
1218.9594,0.1496
1217.99503,0.14968
1217.03067,0.14971
1216.0663,0.1497
1215.10193,0.14965
1214.13757,0.14958
1213.1732,0.14951
1212.20883,0.14944
1211.24447,0.14938
1210.2801,0.14934
1209.31573,0.14932
1208.35137,0.14932
1207.387,0.1493
1206.42264,0.14925
1205.45827,0.14914
1204.4939,0.14897
1203.52954,0.14877
1202.56517,0.1486
1201.6008,0.14854
1200.63644,0.14862
1199.67207,0.14871
1198.7077,0.14874
1197.74334,0.14866
1196.77897,0.14853
1195.8146,0.14848
1194.85024,0.1486
1193.88587,0.14883
1192.9215,0.14899
1191.95714,0.149
1190.99277,0.14898
1190.0284,0.14906
1189.06404,0.14925
1188.09967,0.14943
1187.1353,0.14958
1186.17094,0.14974
1185.20657,0.14992
1184.2422,0.15012
1183.27784,0.15031
1182.31347,0.15051
1181.3491,0.15071
1180.38474,0.15086
1179.42037,0.15096
1178.456,0.15105
1177.49164,0.15118
1176.52727,0.15137
1175.5629,0.15159
1174.59854,0.1517
1173.63417,0.15168
1172.6698,0.1516
1171.70544,0.15153
1170.74107,0.15148
1169.7767,0.15147
1168.81234,0.15147
1167.84797,0.15139
1166.8836,0.15119
1165.91924,0.15092
1164.95487,0.15067
1163.9905,0.1504
1163.02614,0.1501
1162.06177,0.1498
1161.0974,0.14959
1160.13304,0.14944
1159.16867,0.14921
1158.2043,0.14884
1157.23994,0.14835
1156.27557,0.14785
1155.3112,0.1474
1154.34684,0.14698
1153.38247,0.14656
1152.4181,0.14605
1151.45374,0.14544
1150.48937,0.14487
1149.525,0.14451
1148.56064,0.14427
1147.59627,0.14393
1146.63191,0.14343
1145.66754,0.14286
1144.70317,0.14226
1143.73881,0.14171
1142.77444,0.14135
1141.81007,0.14114
1140.84571,0.14087
1139.88134,0.14049
1138.91697,0.1401
1137.95261,0.13977
1136.98824,0.13941
1136.02387,0.13895
1135.05951,0.13847
1134.09514,0.13813
1133.13077,0.13794
1132.16641,0.13779
1131.20204,0.1376
1130.23767,0.13742
1129.27331,0.13728
1128.30894,0.13716
1127.34457,0.13702
1126.38021,0.13692
1125.41584,0.13691
1124.45147,0.13691
1123.48711,0.1368
1122.52274,0.13669
1121.55837,0.13667
1120.59401,0.13666
1119.62964,0.13657
1118.66527,0.13643
1117.70091,0.13637
1116.73654,0.13643
1115.77217,0.1365
1114.80781,0.13654
1113.84344,0.13665
1112.87907,0.13695
1111.91471,0.13734
1110.95034,0.1376
1109.98597,0.13766
1109.02161,0.13763
1108.05724,0.13767
1107.09287,0.13788
1106.12851,0.13829
1105.16414,0.1388
1104.19977,0.13924
1103.23541,0.13951
1102.27104,0.13974
1101.30667,0.14009
1100.34231,0.14058
1099.37794,0.1412
1098.41357,0.14187
1097.44921,0.14256
1096.48484,0.14322
1095.52047,0.14384
1094.55611,0.14438
1093.59174,0.14491
1092.62737,0.1455
1091.66301,0.14606
1090.69864,0.14641
1089.73427,0.14662
1088.76991,0.14693
1087.80554,0.14744
1086.84117,0.14814
1085.87681,0.14897
1084.91244,0.14972
1083.94808,0.15021
1082.98371,0.15057
1082.01934,0.15103
1081.05498,0.15159
1080.09061,0.15216
1079.12624,0.15271
1078.16188,0.15326
1077.19751,0.15384
1076.23314,0.15451
1075.26878,0.15539
1074.30441,0.15659
1073.34004,0.15799
1072.37568,0.15933
1071.41131,0.16062
1070.44694,0.16204
1069.48258,0.16336
1068.51821,0.16407
1067.55384,0.16427
1066.58948,0.16478
1065.62511,0.16629
1064.66074,0.16861
1063.69638,0.17098
1062.73201,0.17293
1061.76764,0.17455
1060.80328,0.17594
1059.83891,0.17687
1058.87454,0.17735
1057.91018,0.178
1056.94581,0.17926
1055.98144,0.18083
1055.01708,0.18216
1054.05271,0.18304
1053.08834,0.18355
1052.12398,0.18388
1051.15961,0.18412
1050.19524,0.18419
1049.23088,0.18401
1048.26651,0.18352
1047.30214,0.18275
1046.33778,0.1818
1045.37341,0.18077
1044.40904,0.17968
1043.44468,0.17849
1042.48031,0.17717
1041.51594,0.17574
1040.55158,0.17414
1039.58721,0.17223
1038.62284,0.1701
1037.65848,0.16809
1036.69411,0.16636
1035.72974,0.16474
1034.76538,0.16303
1033.80101,0.16116
1032.83664,0.15919
1031.87228,0.15721
1030.90791,0.15523
1029.94354,0.15297
1028.97918,0.15018
1028.01481,0.14726
1027.05044,0.14499
1026.08608,0.14341
1025.12171,0.14188
1024.15734,0.14006
1023.19298,0.13816
1022.22861,0.13629
1021.26425,0.13432
1020.29988,0.13233
1019.33551,0.1304
1018.37115,0.12852
1017.40678,0.12679
1016.44241,0.1253
1015.47805,0.12393
1014.51368,0.12249
1013.54931,0.12107
1012.58495,0.11983
1011.62058,0.11871
1010.65621,0.11766
1009.69185,0.11672
1008.72748,0.11589
1007.76311,0.11502
1006.79875,0.1141
1005.83438,0.11332
1004.87001,0.11275
1003.90565,0.11222
1002.94128,0.11158
1001.97691,0.11092
1001.01255,0.11038
1000.04818,0.10994
999.08381,0.10956
998.11945,0.10918
997.15508,0.10876
996.19071,0.10832
995.22635,0.10794
994.26198,0.10766
993.29761,0.10744
992.33325,0.10718
991.36888,0.10677
990.40451,0.10623
989.44015,0.10571
988.47578,0.10526
987.51141,0.10486
986.54705,0.10444
985.58268,0.10396
984.61831,0.10341
983.65395,0.10285
982.68958,0.10233
981.72521,0.10179
980.76085,0.10115
979.79648,0.10049
978.83211,0.0999
977.86775,0.09933
976.90338,0.09866
975.93901,0.0979
974.97465,0.09716
974.01028,0.0965
973.04591,0.09581
972.08155,0.095
971.11718,0.09414
970.15281,0.0934
969.18845,0.09277
968.22408,0.09208
967.25971,0.09122
966.29535,0.09031
965.33098,0.08948
964.36661,0.08869
963.40225,0.08784
962.43788,0.08693
961.47351,0.086
960.50915,0.08507
959.54478,0.08414
958.58042,0.08328
957.61605,0.08251
956.65168,0.08176
955.68732,0.08097
954.72295,0.08015
953.75858,0.07933
952.79422,0.07848
951.82985,0.07762
950.86548,0.07678
949.90112,0.07597
948.93675,0.07518
947.97238,0.07443
947.00802,0.07367
946.04365,0.07283
945.07928,0.072
944.11492,0.07135
943.15055,0.07079
942.18618,0.0701
941.22182,0.06932
940.25745,0.06855
939.29308,0.06776
938.32872,0.0669
937.36435,0.0661
936.39998,0.06547
935.43562,0.06494
934.47125,0.06433
933.50688,0.06361
932.54252,0.06286
931.57815,0.06215
930.61378,0.0615
929.64942,0.06083
928.68505,0.06004
927.72068,0.05919
926.75632,0.05845
925.79195,0.05786
924.82758,0.05736
923.86322,0.05687
922.89885,0.0563
921.93448,0.05566
920.97012,0.05509
920.00575,0.05465
919.04138,0.05427
918.07702,0.0538
917.11265,0.05326
916.14828,0.05281
915.18392,0.05245
914.21955,0.05205
913.25518,0.05157
912.29082,0.05112
911.32645,0.05081
910.36208,0.05061
909.39772,0.05045
908.43335,0.05027
907.46898,0.05008
906.50462,0.04992
905.54025,0.04974
904.57588,0.04949
903.61152,0.04924
902.64715,0.0491
901.68278,0.04903
900.71842,0.04897
899.75405,0.04899
898.78969,0.04907
897.82532,0.04916
896.86095,0.04923
895.89659,0.04936
894.93222,0.04953
893.96785,0.04962
893.00349,0.04964
892.03912,0.04976
891.07475,0.05003
890.11039,0.05036
889.14602,0.05066
888.18165,0.05087
887.21729,0.05098
886.25292,0.05109
885.28855,0.05127
884.32419,0.05147
883.35982,0.05166
882.39545,0.05187
881.43109,0.05196
880.46672,0.05184
879.50235,0.05176
878.53799,0.052
877.57362,0.05242
876.60925,0.05273
875.64489,0.05283
874.68052,0.05279
873.71615,0.05271
872.75179,0.05275
871.78742,0.05296
870.82305,0.05321
869.85869,0.05337
868.89432,0.0534
867.92995,0.05337
866.96559,0.05334
866.00122,0.05329
865.03685,0.05317
864.07249,0.05311
863.10812,0.05319
862.14375,0.05324
861.17939,0.05309
860.21502,0.05288
859.25065,0.05277
858.28629,0.0527
857.32192,0.05259
856.35755,0.05247
855.39319,0.05232
854.42882,0.05211
853.46445,0.05187
852.50009,0.05162
851.53572,0.05133
850.57135,0.05101
849.60699,0.05069
848.64262,0.05039
847.67825,0.05014
846.71389,0.04989
845.74952,0.04954
844.78515,0.04904
843.82079,0.04853
842.85642,0.04816
841.89205,0.0479
840.92769,0.04755
839.96332,0.04705
838.99895,0.04649
838.03459,0.04597
837.07022,0.04548
836.10586,0.04498
835.14149,0.04442
834.17712,0.0438
833.21276,0.04323
832.24839,0.04282
831.28402,0.04247
830.31966,0.04202
829.35529,0.04144
828.39092,0.04081
827.42656,0.0402
826.46219,0.03959
825.49782,0.03905
824.53346,0.03865
823.56909,0.03836
822.60472,0.03804
821.64036,0.03765
820.67599,0.03726
819.71162,0.03689
818.74726,0.03646
817.78289,0.036
816.81852,0.0356
815.85416,0.03527
814.88979,0.03498
813.92542,0.03468
812.96106,0.03432
811.99669,0.03389
811.03232,0.03351
810.06796,0.03327
809.10359,0.03311
808.13922,0.03286
807.17486,0.03245
806.21049,0.03198
805.24612,0.03151
804.28176,0.03101
803.31739,0.03054
802.35302,0.03019
801.38866,0.02994
800.42429,0.0296
799.45992,0.02912
798.49556,0.02868
797.53119,0.0284
796.56682,0.02821
795.60246,0.02798
794.63809,0.02769
793.67372,0.02738
792.70936,0.02704
791.74499,0.02672
790.78062,0.02647
789.81626,0.02632
788.85189,0.02618
787.88752,0.02597
786.92316,0.02572
785.95879,0.02542
784.99442,0.02507
784.03006,0.02472
783.06569,0.02448
782.10132,0.02439
781.13696,0.02433
780.17259,0.02415
779.20822,0.02392
778.24386,0.02373
777.27949,0.02365
776.31512,0.02365
775.35076,0.02362
774.38639,0.02348
773.42203,0.0233
772.45766,0.02325
771.49329,0.02334
770.52893,0.02338
769.56456,0.02325
768.60019,0.02306
767.63583,0.02299
766.67146,0.02305
765.70709,0.02312
764.74273,0.02316
763.77836,0.02319
762.81399,0.02313
761.84963,0.02291
760.88526,0.02266
759.92089,0.02255
758.95653,0.02258
757.99216,0.02262
757.02779,0.02263
756.06343,0.02259
755.09906,0.02251
754.13469,0.02246
753.17033,0.02245
752.20596,0.02234
751.24159,0.02217
750.27723,0.02211
749.31286,0.02216
748.34849,0.02217
747.38413,0.02216
746.41976,0.02217
745.45539,0.02213
744.49103,0.0221
743.52666,0.02215
742.56229,0.02223
741.59793,0.02223
740.63356,0.0222
739.66919,0.02222
738.70483,0.02229
737.74046,0.02238
736.77609,0.02245
735.81173,0.02253
734.84736,0.02262
733.88299,0.02267
732.91863,0.02265
731.95426,0.02269
730.98989,0.02285
730.02553,0.02298
729.06116,0.02299
728.09679,0.02301
727.13243,0.02314
726.16806,0.02333
725.20369,0.02344
724.23933,0.0235
723.27496,0.02349
722.31059,0.02332
721.34623,0.02304
720.38186,0.02297
719.41749,0.02329
718.45313,0.02366
717.48876,0.02382
716.52439,0.02384
715.56003,0.02388
714.59566,0.02398
713.63129,0.02409
712.66693,0.02415
711.70256,0.02416
710.7382,0.02423
709.77383,0.0244
708.80946,0.02449
707.8451,0.02442
706.88073,0.02433
705.91636,0.02441
704.952,0.02452
703.98763,0.02449
703.02326,0.02438
702.0589,0.02441
701.09453,0.02451
700.13016,0.02456
699.1658,0.02458
698.20143,0.02461
697.23706,0.02461
696.2727,0.02465
695.30833,0.02475
694.34396,0.02476
693.3796,0.02461
692.41523,0.02443
691.45086,0.02428
690.4865,0.0241
689.52213,0.02394
688.55776,0.02391
687.5934,0.02398
686.62903,0.02397
685.66466,0.02381
684.7003,0.02364
683.73593,0.02369
682.77156,0.02393
681.8072,0.02409
680.84283,0.024
679.87846,0.02383
678.9141,0.02373
677.94973,0.02373
676.98536,0.02386
676.021,0.02409
675.05663,0.02431
674.09226,0.02446
673.1279,0.02465
672.16353,0.0249
671.19916,0.02488
670.2348,0.02288
669.27043,0.01946
668.30606,0.01769
667.3417,0.02034
666.37733,0.02427
665.41296,0.0263
664.4486,0.02604
663.48423,0.02549
662.51986,0.02523
661.5555,0.02529
660.59113,0.02548
659.62676,0.02562
658.6624,0.02566
657.69803,0.0257
656.73366,0.02573
655.7693,0.02568
654.80493,0.02557
653.84056,0.02559
652.8762,0.02583
651.91183,0.02612
650.94747,0.02621
649.9831,0.0261
649.01873,0.02605
648.05437,0.02627
647.09,0.02671
646.12563,0.02715
645.16127,0.02746
644.1969,0.02762
643.23253,0.02772
642.26817,0.02783
641.3038,0.02802
640.33943,0.02831
639.37507,0.02864
638.4107,0.02887
637.44633,0.02891
636.48197,0.02894
635.5176,0.02914
634.55323,0.02938
633.58887,0.02946
632.6245,0.0295
631.66013,0.02972
630.69577,0.0301
629.7314,0.03043
628.76703,0.03064
627.80267,0.03081
626.8383,0.03099
625.87393,0.03113
624.90957,0.0313
623.9452,0.03156
622.98083,0.03182
622.01647,0.03199
621.0521,0.03224
620.08773,0.0326
619.12337,0.03271
618.159,0.03257
617.19463,0.03272
616.23027,0.03348
615.2659,0.03446
614.30153,0.03509
613.33717,0.03531
612.3728,0.03544
611.40843,0.03571
610.44407,0.03619
609.4797,0.03688
608.51533,0.03761
607.55097,0.03821
606.5866,0.03866
605.62223,0.03911
604.65787,0.03969
603.6935,0.04036
602.72913,0.04099
601.76477,0.04151
600.8004,0.04196
599.83603,0.0424
598.87167,0.04286
597.9073,0.04344
596.94293,0.04428
595.97857,0.04534
595.0142,0.0463
594.04983,0.04693
593.08547,0.0473
592.1211,0.04773
591.15673,0.04847
590.19237,0.04936
589.228,0.05014
588.26364,0.05081
587.29927,0.05144
586.3349,0.05194
585.37054,0.05237
584.40617,0.0529
583.4418,0.05342
582.47744,0.05359
581.51307,0.05343
580.5487,0.05331
579.58434,0.05339
578.61997,0.05347
577.6556,0.05318
576.69124,0.05249
575.72687,0.05171
574.7625,0.0511
573.79814,0.05057
572.83377,0.04999
571.8694,0.04923
570.90504,0.04813
569.94067,0.04687
568.9763,0.04591
568.01194,0.04528
567.04757,0.04461
566.0832,0.04373
565.11884,0.04279
564.15447,0.04184
563.1901,0.04086
562.22574,0.03993
561.26137,0.0391
560.297,0.0384
559.33264,0.0378
558.36827,0.03729
557.4039,0.03682
556.43954,0.0363
555.47517,0.0357
554.5108,0.0352
553.54644,0.03491
552.58207,0.03458
551.6177,0.03389
550.65334,0.03306
549.68897,0.03258
548.7246,0.03259
547.76024,0.03271
546.79587,0.03249
545.8315,0.03201
544.86714,0.03155
543.90277,0.03127
542.9384,0.03117
541.97404,0.03126
541.00967,0.03142
540.0453,0.03141
539.08094,0.03126
538.11657,0.03099
537.1522,0.03042
536.18784,0.02964
535.22347,0.02912
534.2591,0.029
533.29474,0.02878
532.33037,0.02838
531.366,0.02827
530.40164,0.02855
529.43727,0.02858
528.4729,0.02796
527.50854,0.02715
526.54417,0.02682
525.57981,0.02703
524.61544,0.02733
523.65107,0.02732
522.68671,0.02717
521.72234,0.02714
520.75797,0.0272
519.79361,0.02708
518.82924,0.02667
517.86487,0.02602
516.90051,0.02552
515.93614,0.02546
514.97177,0.02539
514.00741,0.02496
513.04304,0.02478
512.07867,0.02532
511.11431,0.02593
510.14994,0.02587
509.18557,0.02532
508.22121,0.02464
507.25684,0.02406
506.29247,0.02378
505.32811,0.02378
504.36374,0.02368
503.39937,0.02336
502.43501,0.02307
501.47064,0.0229
500.50627,0.02277
499.54191,0.02264
498.57754,0.02263
497.61317,0.02261
496.64881,0.02245
495.68444,0.02242
494.72007,0.02261
493.75571,0.02264
492.79134,0.02232
491.82697,0.02217
490.86261,0.02231
489.89824,0.02223
488.93387,0.02192
487.96951,0.02178
487.00514,0.02182
486.04077,0.02158
485.07641,0.02116
484.11204,0.021
483.14767,0.02118
482.18331,0.02127
481.21894,0.02085
480.25457,0.02003
479.29021,0.01936
478.32584,0.01941
477.36147,0.01986
476.39711,0.01976
475.43274,0.01916
474.46837,0.01865
473.50401,0.01839
472.53964,0.01821
471.57527,0.01855
470.61091,0.01961
469.64654,0.02049
468.68217,0.02032
467.71781,0.0194
466.75344,0.01897
465.78907,0.01944
464.82471,0.01999
463.86034,0.01982
462.89598,0.01912
461.93161,0.01882
460.96724,0.01938
460.00288,0.01989
459.03851,0.01946
458.07414,0.01881
457.10978,0.01925
456.14541,0.02022
455.18104,0.02028
454.21668,0.01929
453.25231,0.01843
452.28794,0.01821
451.32358,0.01824
450.35921,0.0182
449.39484,0.0178
448.43048,0.01668
447.46611,0.01515
446.50174,0.01436
445.53738,0.01485
444.57301,0.01595
443.60864,0.01684
442.64428,0.01715
441.67991,0.01678
440.71554,0.01578
439.75118,0.01482
438.78681,0.01459
437.82244,0.01506
436.85808,0.01558
435.89371,0.01558
434.92934,0.01516
433.96498,0.01468
433.00061,0.01415
432.03624,0.01338
431.07188,0.01281
430.10751,0.01288
429.14314,0.01295
428.17878,0.01245
427.21441,0.01183
426.25004,0.0115
425.28568,0.01086
424.32131,0.00943
423.35694,0.00791
422.39258,0.00726
421.42821,0.0072
420.46384,0.00683
419.49948,0.00627
418.53511,0.00667
417.57074,0.00785
416.60638,0.00877
415.64201,0.00887
414.67764,0.0088
413.71328,0.0091
412.74891,0.00922
411.78454,0.00808
410.82018,0.0058
409.85581,0.00371
408.89144,0.00226
407.92708,0.00096
406.96271,0.00018
405.99834,0.00084
405.03398,0.0023
404.06961,0.00281
403.10524,0.00203
402.14088,0.00102
401.17651,0.00051
400.21215,0.00051
399.24778,0.00051
